#wavelength (angstroms) relative transmission
1600 0.03766
1610 0.09440
1620 0.15382
1630 0.23673
1640 0.32277
1650 0.40281
1660 0.48509
1670 0.53903
1680 0.59458
1690 0.63062
1700 0.66781
1710 0.67631
1720 0.68331
1730 0.72565
1740 0.76695
1750 0.79714
1760 0.82700
1770 0.83930
1780 0.85274
1790 0.86500
1800 0.87902
1810 0.89128
1820 0.90277
1830 0.91628
1840 0.92766
1850 0.93778
1860 0.95715
1870 0.96996
1880 0.98719
1890 0.99146
1900 1.00000
1910 0.98822
1920 0.98078
1930 0.97180
1940 0.96024
1950 0.95056
1960 0.94452
1970 0.93715
1980 0.93141
1990 0.92309
2000 0.91576
2010 0.89706
2020 0.87755
2030 0.85863
2040 0.83764
2050 0.81820
2060 0.79722
2070 0.77502
2080 0.75330
2090 0.73058
2100 0.70805
2110 0.69387
2120 0.67826
2130 0.66310
2140 0.64612
2150 0.63066
2160 0.61420
2170 0.59823
2180 0.58103
2190 0.56634
2200 0.54963
2210 0.52430
2220 0.49919
2230 0.47519
2240 0.45184
2250 0.43579
2260 0.42004
2270 0.40457
2280 0.38977
2290 0.37483
2300 0.36091
2310 0.34743
2320 0.33436
2330 0.32148
2340 0.31062
2350 0.30046
2360 0.29092
2370 0.28142
2380 0.27233
2390 0.26324
2400 0.25506
2410 0.24659
2420 0.23838
2430 0.23047
2440 0.22277
2450 0.21335
2460 0.20418
2470 0.19546
2480 0.18695
2490 0.17915
2500 0.17241
2510 0.16538
2520 0.15853
2530 0.15216
2540 0.14576
2550 0.14093
2560 0.13622
2570 0.13188
2580 0.12764
2590 0.12359
2600 0.11969
2610 0.11858
2620 0.11744
2630 0.11627
2640 0.11509
2650 0.11391
2660 0.11266
2670 0.11141
2680 0.11008
2690 0.10875
2700 0.10736
2710 0.10592
2720 0.10448
2730 0.10297
2740 0.10143
2750 0.09985
2760 0.09815
2770 0.09646
2780 0.09476
2790 0.09296
2800 0.09105
2810 0.08917
2820 0.08722
2830 0.08512
2840 0.08302
2850 0.08096
2860 0.07879
2870 0.07661
2880 0.07448
2890 0.07227
2900 0.07010
2910 0.06793
2920 0.06568
2930 0.06358
2940 0.06141
2950 0.05927
2960 0.05725
2970 0.05515
2980 0.05305
2990 0.05114
3000 0.04926
3010 0.04742
3020 0.04565
3030 0.04396
3040 0.04234
3050 0.04068
3060 0.03917
3070 0.03766
3080 0.03623
3090 0.03483
3100 0.03350
3110 0.03218
3120 0.03096
3130 0.02971
3140 0.02857
3150 0.02743
3160 0.02636
3170 0.02529
3180 0.02426
3190 0.02327
3200 0.02231
3210 0.02139
3220 0.02047
3230 0.01959
3240 0.01874
3250 0.01793
3260 0.01712
3270 0.01635
3280 0.01561
3290 0.01487
3300 0.01417
3310 0.01351
3320 0.01289
3330 0.01226
3340 0.01163
3350 0.01108
3360 0.01053
3370 0.00998
3380 0.00946
3390 0.00898
3400 0.00850
3410 0.00806
3420 0.00762
3430 0.00722
3440 0.00685
3450 0.00644
3460 0.00611
3470 0.00578
3480 0.00545
3490 0.00515
3500 0.00486
3510 0.00460
3520 0.00434
3530 0.00412
3540 0.00390
3550 0.00368
3560 0.00350
3570 0.00331
3580 0.00317
3590 0.00298
3600 0.00287
3610 0.00272
3620 0.00261
3630 0.00250
3640 0.00243
3650 0.00236
3660 0.00228
3670 0.00221
3680 0.00217
3690 0.00214
3700 0.00210
3710 0.00206
3720 0.00206
3730 0.00202
3740 0.00202
3750 0.00202
3760 0.00206
3770 0.00206
3780 0.00210
3790 0.00210
3800 0.00214
3810 0.00217
3820 0.00221
3830 0.00228
3840 0.00232
3850 0.00236
3860 0.00243
3870 0.00247
3880 0.00250
3890 0.00258
3900 0.00265
3910 0.00269
3920 0.00276
3930 0.00280
3940 0.00287
3950 0.00291
3960 0.00295
3970 0.00302
3980 0.00306
3990 0.00309
4000 0.00317
4010 0.00320
4020 0.00320
4030 0.00324
4040 0.00328
4050 0.00331
4060 0.00331
4070 0.00335
4080 0.00335
4090 0.00335
4100 0.00335
4110 0.00339
4120 0.00339
4130 0.00339
4140 0.00339
4150 0.00335
4160 0.00335
4170 0.00335
4180 0.00335
4190 0.00331
4200 0.00331
4210 0.00328
4220 0.00328
4230 0.00324
4240 0.00320
4250 0.00320
4260 0.00317
4270 0.00313
4280 0.00309
4290 0.00306
4300 0.00302
4310 0.00298
4320 0.00295
4330 0.00291
4340 0.00287
4350 0.00283
4360 0.00280
4370 0.00276
4380 0.00272
4390 0.00269
4400 0.00265
4410 0.00261
4420 0.00258
4430 0.00254
4440 0.00250
4450 0.00243
4460 0.00239
4470 0.00236
4480 0.00232
4490 0.00228
4500 0.00225
4510 0.00221
4520 0.00217
4530 0.00214
4540 0.00210
4550 0.00206
4560 0.00202
4570 0.00199
4580 0.00195
4590 0.00191
4600 0.00188
4610 0.00188
4620 0.00184
4630 0.00180
4640 0.00177
4650 0.00173
4660 0.00169
4670 0.00169
4680 0.00166
4690 0.00162
4700 0.00158
4710 0.00158
4720 0.00155
4730 0.00151
4740 0.00151
4750 0.00147
4760 0.00144
4770 0.00144
4780 0.00140
4790 0.00136
4800 0.00136
4810 0.00133
4820 0.00129
4830 0.00129
4840 0.00125
4850 0.00125
4860 0.00121
4870 0.00121
4880 0.00118
4890 0.00118
4900 0.00114
4910 0.00114
4920 0.00110
4930 0.00110
4940 0.00107
4950 0.00107
4960 0.00103
4970 0.00103
4980 0.00103
4990 0.00099
5000 0.00099
5010 0.00096
5020 0.00096
5030 0.00096
5040 0.00092
5050 0.00092
5060 0.00092
5070 0.00088
5080 0.00088
5090 0.00088
5100 0.00085
5110 0.00085
5120 0.00085
5130 0.00085
5140 0.00081
5150 0.00081
5160 0.00081
5170 0.00077
5180 0.00077
5190 0.00077
5200 0.00077
5210 0.00074
5220 0.00074
5230 0.00074
5240 0.00074
5250 0.00074
5260 0.00070
5270 0.00070
5280 0.00070
5290 0.00070
5300 0.00070
5310 0.00066
5320 0.00066
5330 0.00066
5340 0.00066
5350 0.00066
5360 0.00063
5370 0.00063
5380 0.00063
5390 0.00063
5400 0.00063
5410 0.00063
5420 0.00059
5430 0.00059
5440 0.00059
5450 0.00059
5460 0.00059
5470 0.00059
5480 0.00059
5490 0.00055
5500 0.00055
5510 0.00055
5520 0.00055
5530 0.00055
5540 0.00055
5550 0.00055
5560 0.00052
5570 0.00052
5580 0.00052
5590 0.00052
5600 0.00052
5610 0.00052
5620 0.00052
5630 0.00048
5640 0.00048
5650 0.00048
5660 0.00048
5670 0.00048
5680 0.00048
5690 0.00048
5700 0.00048
5710 0.00044
5720 0.00044
5730 0.00044
5740 0.00044
5750 0.00044
5760 0.00044
5770 0.00044
5780 0.00040
5790 0.00040
5800 0.00040
5810 0.00040
5820 0.00040
5830 0.00040
5840 0.00040
5850 0.00040
5860 0.00037
5870 0.00037
5880 0.00037
5890 0.00037
5900 0.00037
5910 0.00037
5920 0.00037
5930 0.00037
5940 0.00037
5950 0.00033
5960 0.00033
5970 0.00033
5980 0.00033
5990 0.00033
6000 0.00033
6010 0.00033
6020 0.00033
6030 0.00033
6040 0.00029
6050 0.00029
6060 0.00029
6070 0.00029
6080 0.00029
6090 0.00029
6100 0.00029
6110 0.00029
6120 0.00029
6130 0.00026
6140 0.00026
6150 0.00026
6160 0.00026
6170 0.00026
6180 0.00026
6190 0.00026
6200 0.00026
6210 0.00026
6220 0.00022
6230 0.00022
6240 0.00022
6250 0.00022
6260 0.00022
6270 0.00022
6280 0.00022
6290 0.00022
6300 0.00022
6310 0.00022
6320 0.00018
6330 0.00018
6340 0.00018
6350 0.00018
6360 0.00018
6370 0.00018
6380 0.00018
6390 0.00018
6400 0.00018
6410 0.00018
6420 0.00015
6430 0.00015
6440 0.00015
6450 0.00015
6460 0.00015
6470 0.00015
6480 0.00015
6490 0.00015
6500 0.00015
6510 0.00015
6520 0.00015
6530 0.00011
6540 0.00011
6550 0.00011
6560 0.00011
6570 0.00011
6580 0.00011
6590 0.00011
6600 0.00011
6610 0.00011
6620 0.00011
6630 0.00011
6640 0.00007
6650 0.00007
6660 0.00007
6670 0.00007
6680 0.00007
6690 0.00007
6700 0.00007
6710 0.00007
6720 0.00007
6730 0.00007
6740 0.00007
6750 0.00007
6760 0.00004
6770 0.00004
6780 0.00004
6790 0.00004
6800 0.00004
6810 0.00004
6820 0.00004
6830 0.00004
6840 0.00004
6850 0.00004
6860 0.00004
6870 0.00004
6880 0.00004
6890 0.00004
6900 0.00004
6910 0.00000
6920 0.00000
6930 0.00000
6940 0.00000
6950 0.00000
6960 0.00000
6970 0.00000
6980 0.00000
6990 0.00000
7000 0.00000
7010 0.00000
7020 0.00000
7030 0.00000
7040 0.00000
7050 0.00000
7060 0.00000
7070 0.00000
7080 0.00000
7090 0.00000
7100 0.00000
7110 0.00000
7120 0.00000
7130 0.00000
7140 0.00000
7150 0.00000
7160 0.00000
7170 0.00000
7180 0.00000
7190 0.00000
7200 0.00000
7210 0.00000
7220 0.00000
7230 0.00000
7240 0.00000
7250 0.00000
7260 0.00000
7270 0.00000
7280 0.00000
7290 0.00000
7300 0.00000
7310 0.00000
7320 0.00000
7330 0.00000
7340 0.00000
7350 0.00000
7360 0.00000
7370 0.00000
7380 0.00000
7390 0.00000
7400 0.00000
7410 0.00000
7420 0.00000
7430 0.00000
7440 0.00000
7450 0.00000
7460 0.00000
7470 0.00000
7480 0.00000
7490 0.00000
7500 0.00000
7510 0.00000
7520 0.00004
7530 0.00004
7540 0.00004
7550 0.00004
7560 0.00004
7570 0.00004
7580 0.00004
7590 0.00004
7600 0.00004
7610 0.00004
7620 0.00007
7630 0.00007
7640 0.00007
7650 0.00007
7660 0.00007
7670 0.00007
7680 0.00007
7690 0.00007
7700 0.00011
7710 0.00011
7720 0.00011
7730 0.00011
7740 0.00011
7750 0.00011
7760 0.00011
7770 0.00015
7780 0.00015
7790 0.00015
7800 0.00015
7810 0.00015
7820 0.00015
7830 0.00018
7840 0.00018
7850 0.00018
7860 0.00018
7870 0.00018
7880 0.00022
7890 0.00022
7900 0.00022
7910 0.00022
7920 0.00022
7930 0.00026
7940 0.00026
7950 0.00026
7960 0.00026
7970 0.00029
7980 0.00029
7990 0.00029
8000 0.00029
