#wavelength (angstroms) relative transmission
1600 0.00000
1610 0.01118
1620 0.02240
1630 0.03362
1640 0.04480
1650 0.05598
1660 0.06720
1670 0.07843
1680 0.08606
1690 0.09162
1700 0.09616
1710 0.09692
1720 0.09858
1730 0.10460
1740 0.11043
1750 0.11528
1760 0.11999
1770 0.12282
1780 0.12561
1790 0.12830
1800 0.13086
1810 0.13414
1820 0.13728
1830 0.13957
1840 0.14325
1850 0.14684
1860 0.15030
1870 0.15434
1880 0.15901
1890 0.17000
1900 0.17422
1910 0.17395
1920 0.17786
1930 0.17952
1940 0.18244
1950 0.18518
1960 0.18908
1970 0.19344
1980 0.19887
1990 0.20215
2000 0.20713
2010 0.20996
2020 0.21265
2030 0.21629
2040 0.21970
2050 0.22289
2060 0.22697
2070 0.23079
2080 0.23541
2090 0.24026
2100 0.24578
2110 0.25404
2120 0.26235
2130 0.27209
2140 0.28124
2150 0.29126
2160 0.30198
2170 0.31339
2180 0.32407
2190 0.33440
2200 0.34602
2210 0.35536
2220 0.37103
2230 0.38759
2240 0.40420
2250 0.42759
2260 0.45277
2270 0.47805
2280 0.50503
2290 0.53255
2300 0.56015
2310 0.58826
2320 0.61775
2330 0.64644
2340 0.67310
2350 0.70538
2360 0.73864
2370 0.77110
2380 0.80239
2390 0.83206
2400 0.86138
2410 0.88818
2420 0.91417
2430 0.93850
2440 0.96072
2450 0.97131
2460 0.98011
2470 0.98595
2480 0.99134
2490 0.99452
2500 0.99600
2510 0.99704
2520 0.99672
2530 0.99556
2540 0.99259
2550 0.99758
2560 0.99969
2570 1.00000
2580 0.99897
2590 0.99793
2600 0.99560
2610 0.99286
2620 0.98878
2630 0.98469
2640 0.97931
2650 0.97091
2660 0.96121
2670 0.95066
2680 0.94187
2690 0.93051
2700 0.91920
2710 0.90743
2720 0.89531
2730 0.88279
2740 0.86986
2750 0.85312
2760 0.83511
2770 0.81886
2780 0.80140
2790 0.78313
2800 0.76535
2810 0.74672
2820 0.72778
2830 0.70883
2840 0.68913
2850 0.66991
2860 0.65030
2870 0.63077
2880 0.61254
2890 0.59310
2900 0.57376
2910 0.55163
2920 0.52658
2930 0.50238
2940 0.47863
2950 0.45538
2960 0.43293
2970 0.41170
2980 0.39123
2990 0.37121
3000 0.35199
3010 0.33422
3020 0.31684
3030 0.29983
3040 0.28421
3050 0.26517
3060 0.24690
3070 0.23043
3080 0.21467
3090 0.20026
3100 0.18621
3110 0.17346
3120 0.16165
3130 0.14985
3140 0.13921
3150 0.13238
3160 0.12574
3170 0.11950
3180 0.11340
3190 0.10774
3200 0.10006
3210 0.09521
3220 0.09023
3230 0.08588
3240 0.08139
3250 0.07681
3260 0.07232
3270 0.06815
3280 0.06437
3290 0.06069
3300 0.05688
3310 0.05616
3320 0.05544
3330 0.05472
3340 0.05400
3350 0.05329
3360 0.05257
3370 0.05185
3380 0.05113
3390 0.05046
3400 0.04974
3410 0.04902
3420 0.04835
3430 0.04767
3440 0.04700
3450 0.04633
3460 0.04565
3470 0.04503
3480 0.04440
3490 0.04372
3500 0.04314
3510 0.04251
3520 0.04193
3530 0.04134
3540 0.04076
3550 0.04018
3560 0.03964
3570 0.03910
3580 0.03856
3590 0.03807
3600 0.03757
3610 0.03708
3620 0.03663
3630 0.03618
3640 0.03578
3650 0.03533
3660 0.03493
3670 0.03457
3680 0.03416
3690 0.03380
3700 0.03344
3710 0.03313
3720 0.03282
3730 0.03250
3740 0.03219
3750 0.03187
3760 0.03160
3770 0.03133
3780 0.03106
3790 0.03080
3800 0.03053
3810 0.03030
3820 0.03008
3830 0.02985
3840 0.02963
3850 0.02940
3860 0.02918
3870 0.02900
3880 0.02878
3890 0.02860
3900 0.02842
3910 0.02819
3920 0.02801
3930 0.02783
3940 0.02765
3950 0.02747
3960 0.02729
3970 0.02716
3980 0.02698
3990 0.02680
4000 0.02662
4010 0.02644
4020 0.02626
4030 0.02608
4040 0.02590
4050 0.02577
4060 0.02554
4070 0.02536
4080 0.02518
4090 0.02500
4100 0.02482
4110 0.02460
4120 0.02442
4130 0.02420
4140 0.02397
4150 0.02375
4160 0.02352
4170 0.02330
4180 0.02307
4190 0.02280
4200 0.02254
4210 0.02227
4220 0.02200
4230 0.02173
4240 0.02146
4250 0.02114
4260 0.02083
4270 0.02052
4280 0.02020
4290 0.01989
4300 0.01957
4310 0.01926
4320 0.01890
4330 0.01854
4340 0.01823
4350 0.01787
4360 0.01751
4370 0.01715
4380 0.01679
4390 0.01643
4400 0.01607
4410 0.01571
4420 0.01535
4430 0.01499
4440 0.01463
4450 0.01428
4460 0.01392
4470 0.01356
4480 0.01320
4490 0.01279
4500 0.01243
4510 0.01212
4520 0.01176
4530 0.01140
4540 0.01104
4550 0.01068
4560 0.01037
4570 0.01001
4580 0.00970
4590 0.00938
4600 0.00902
4610 0.00871
4620 0.00839
4630 0.00813
4640 0.00781
4650 0.00754
4660 0.00723
4670 0.00696
4680 0.00669
4690 0.00642
4700 0.00620
4710 0.00597
4720 0.00570
4730 0.00548
4740 0.00530
4750 0.00507
4760 0.00489
4770 0.00467
4780 0.00449
4790 0.00435
4800 0.00417
4810 0.00400
4820 0.00386
4830 0.00373
4840 0.00359
4850 0.00346
4860 0.00332
4870 0.00319
4880 0.00310
4890 0.00301
4900 0.00287
4910 0.00278
4920 0.00269
4930 0.00260
4940 0.00256
4950 0.00247
4960 0.00238
4970 0.00233
4980 0.00229
4990 0.00220
5000 0.00215
5010 0.00211
5020 0.00207
5030 0.00202
5040 0.00198
5050 0.00193
5060 0.00193
5070 0.00189
5080 0.00184
5090 0.00184
5100 0.00180
5110 0.00180
5120 0.00175
5130 0.00175
5140 0.00171
5150 0.00171
5160 0.00171
5170 0.00166
5180 0.00166
5190 0.00166
5200 0.00162
5210 0.00162
5220 0.00162
5230 0.00162
5240 0.00157
5250 0.00157
5260 0.00157
5270 0.00153
5280 0.00153
5290 0.00153
5300 0.00153
5310 0.00148
5320 0.00148
5330 0.00148
5340 0.00148
5350 0.00144
5360 0.00144
5370 0.00144
5380 0.00139
5390 0.00139
5400 0.00139
5410 0.00139
5420 0.00135
5430 0.00135
5440 0.00135
5450 0.00135
5460 0.00130
5470 0.00130
5480 0.00130
5490 0.00130
5500 0.00126
5510 0.00126
5520 0.00126
5530 0.00126
5540 0.00121
5550 0.00121
5560 0.00121
5570 0.00121
5580 0.00117
5590 0.00117
5600 0.00117
5610 0.00117
5620 0.00112
5630 0.00112
5640 0.00112
5650 0.00112
5660 0.00108
5670 0.00108
5680 0.00108
5690 0.00108
5700 0.00108
5710 0.00103
5720 0.00103
5730 0.00103
5740 0.00103
5750 0.00099
5760 0.00099
5770 0.00099
5780 0.00099
5790 0.00094
5800 0.00094
5810 0.00094
5820 0.00094
5830 0.00094
5840 0.00090
5850 0.00090
5860 0.00090
5870 0.00090
5880 0.00090
5890 0.00085
5900 0.00085
5910 0.00085
5920 0.00085
5930 0.00085
5940 0.00081
5950 0.00081
5960 0.00081
5970 0.00081
5980 0.00081
5990 0.00076
6000 0.00076
6010 0.00076
6020 0.00076
6030 0.00076
6040 0.00072
6050 0.00072
6060 0.00072
6070 0.00072
6080 0.00072
6090 0.00067
6100 0.00067
6110 0.00067
6120 0.00067
6130 0.00067
6140 0.00063
6150 0.00063
6160 0.00063
6170 0.00063
6180 0.00063
6190 0.00058
6200 0.00058
6210 0.00058
6220 0.00058
6230 0.00058
6240 0.00058
6250 0.00054
6260 0.00054
6270 0.00054
6280 0.00054
6290 0.00054
6300 0.00049
6310 0.00049
6320 0.00049
6330 0.00049
6340 0.00049
6350 0.00049
6360 0.00045
6370 0.00045
6380 0.00045
6390 0.00045
6400 0.00045
6410 0.00045
6420 0.00040
6430 0.00040
6440 0.00040
6450 0.00040
6460 0.00040
6470 0.00040
6480 0.00036
6490 0.00036
6500 0.00036
6510 0.00036
6520 0.00036
6530 0.00036
6540 0.00031
6550 0.00031
6560 0.00031
6570 0.00031
6580 0.00031
6590 0.00031
6600 0.00027
6610 0.00027
6620 0.00027
6630 0.00027
6640 0.00027
6650 0.00027
6660 0.00022
6670 0.00022
6680 0.00022
6690 0.00022
6700 0.00022
6710 0.00022
6720 0.00018
6730 0.00018
6740 0.00018
6750 0.00018
6760 0.00018
6770 0.00018
6780 0.00013
6790 0.00013
6800 0.00013
6810 0.00013
6820 0.00013
6830 0.00013
6840 0.00013
6850 0.00009
6860 0.00009
6870 0.00009
6880 0.00009
6890 0.00009
6900 0.00009
6910 0.00004
6920 0.00004
6930 0.00004
6940 0.00004
6950 0.00004
6960 0.00004
6970 0.00000
6980 0.00000
6990 0.00000
7000 0.00000
