#wavelength (angstroms) relative transmission
2820 0.00000
2830 0.00000
2840 0.00012
2850 0.00012
2860 0.00012
2870 0.00012
2880 0.00012
2890 0.00012
2900 0.00012
2910 0.00012
2920 0.00012
2930 0.00012
2940 0.00012
2950 0.00012
2960 0.00012
2970 0.00012
2980 0.00012
2990 0.00012
3000 0.00023
3010 0.00126
3020 0.02157
3030 0.10678
3040 0.24956
3050 0.40058
3060 0.47869
3070 0.49718
3080 0.60933
3090 0.70478
3100 0.70234
3110 0.71190
3120 0.75294
3130 0.80054
3140 0.79597
3150 0.76955
3160 0.74011
3170 0.73773
3180 0.77063
3190 0.83078
3200 0.89162
3210 0.83854
3220 0.75538
3230 0.77584
3240 0.86313
3250 0.90045
3260 0.92217
3270 0.95450
3280 0.96197
3290 0.95063
3300 0.94696
3310 0.95615
3320 0.97388
3330 0.95048
3340 0.87871
3350 0.83860
3360 0.84943
3370 0.83852
3380 0.79506
3390 0.78221
3400 0.82718
3410 0.87830
3420 0.87457
3430 0.82828
3440 0.79392
3450 0.79943
3460 0.82471
3470 0.83244
3480 0.81362
3490 0.79623
3500 0.80088
3510 0.82215
3520 0.84203
3530 0.84820
3540 0.84813
3550 0.85549
3560 0.87745
3570 0.90939
3580 0.93170
3590 0.93233
3600 0.91538
3610 0.90911
3620 0.92958
3630 0.96188
3640 0.97979
3650 0.97212
3660 0.96281
3670 0.97226
3680 0.99136
3690 1.00000
3700 0.98999
3710 0.97079
3720 0.95142
3730 0.93260
3740 0.92517
3750 0.93135
3760 0.94696
3770 0.93678
3780 0.88792
3790 0.83171
3800 0.80662
3810 0.83201
3820 0.87543
3830 0.88205
3840 0.80045
3850 0.63355
3860 0.43382
3870 0.26143
3880 0.14650
3890 0.08274
3900 0.04963
3910 0.03202
3920 0.02181
3930 0.01535
3940 0.01081
3950 0.00743
3960 0.00499
3970 0.00332
3980 0.00220
3990 0.00155
4000 0.00118
4010 0.00091
4020 0.00072
4030 0.00063
4040 0.00054
4050 0.00054
4060 0.00045
4070 0.00036
4080 0.00036
4090 0.00027
4100 0.00027
4110 0.00027
4120 0.00026
4130 0.00026
4140 0.00026
4150 0.00026
4160 0.00025
4170 0.00025
4180 0.00025
4190 0.00025
4200 0.00024
4210 0.00024
4220 0.00024
4230 0.00023
4240 0.00023
4250 0.00023
4260 0.00023
4270 0.00023
4280 0.00022
4290 0.00022
4300 0.00022
4310 0.00022
4320 0.00022
4330 0.00022
4340 0.00021
4350 0.00021
4360 0.00021
4370 0.00020
4380 0.00020
4390 0.00020
4400 0.00019
4410 0.00019
4420 0.00019
4430 0.00018
4440 0.00018
4450 0.00018
4460 0.00018
4470 0.00017
4480 0.00017
4490 0.00017
4500 0.00016
4510 0.00016
4520 0.00016
4530 0.00015
4540 0.00015
4550 0.00015
4560 0.00015
4570 0.00015
4580 0.00015
4590 0.00014
4600 0.00014
4610 0.00014
4620 0.00021
4630 0.00035
4640 0.00050
4650 0.00056
4660 0.00048
4670 0.00041
4680 0.00033
4690 0.00033
4700 0.00039
4710 0.00057
4720 0.00107
4730 0.00524
4740 0.03465
4750 0.08343
4760 0.08156
4770 0.03766
4780 0.00900
4790 0.00126
4800 0.00024
4810 0.00012
4820 0.00006
4830 0.00006
4840 0.00006
4850 0.00006
4860 0.00006
4870 0.00006
4880 0.00006
4890 0.00000
4900 0.00000
